#         Lambda    Transmission
          37224.8984            0.001201
          37251.6016            0.001099
          37278.3984            0.001117
          37305.1992            0.001213
          37332.1016            0.001211
          37359.0000            0.001253
          37385.8984            0.001231
          37412.8984            0.001209
          37439.8984            0.001237
          37466.8984            0.001197
          37494.0000            0.001128
          37521.1992            0.001091
          37548.3008            0.001037
          37575.5000            0.000956
          37602.8008            0.000858
          37630.1016            0.000717
          37657.3984            0.000602
          37684.8008            0.000578
          37712.1992            0.000587
          37739.6016            0.000474
          37767.1016            0.000377
          37794.6016            0.000317
          37822.1992            0.000233
          37849.8008            0.000230
          37877.5000            0.000157
          37905.1016            0.000228
          37932.8984            0.000424
          37960.6016            0.000474
          37988.3984            0.000563
          38016.3008            0.000633
          38044.1992            0.000451
          38072.1016            0.000464
          38100.1016            0.000850
          38128.1016            0.000942
          38156.1992            0.000812
          38184.3008            0.001039
          38212.3984            0.001136
          38240.6016            0.001040
          38268.8008            0.001322
          38297.1016            0.001361
          38325.3984            0.001194
          38353.6992            0.001184
          38382.1016            0.001108
          38410.5000            0.001127
          38439.0000            0.001191
          38467.5000            0.001142
          38496.1016            0.001138
          38524.6992            0.000946
          38553.3008            0.000972
          38582.0000            0.001021
          38610.6992            0.000773
          38639.5000            0.000693
          38668.3008            0.000647
          38697.1992            0.000523
          38726.1016            0.000451
          38755.0000            0.000366
          38784.0000            0.000398
          38813.0000            0.000391
          38842.1016            0.000223
          38871.1992            0.000226
          38900.3984            0.000307
          38929.6016            0.000401
          38958.8984            0.000664
          38988.1016            0.001206
          39017.5000            0.001624
          39046.8984            0.001920
          39076.3008            0.002697
          39105.8008            0.003559
          39135.3008            0.004236
          39164.8008            0.005163
          39194.3984            0.006273
          39224.1016            0.007327
          39253.8008            0.008786
          39283.5000            0.010680
          39313.3008            0.012370
          39343.1016            0.014320
          39373.0000            0.016680
          39402.8984            0.019370
          39432.8984            0.022320
          39462.8984            0.025810
          39492.8984            0.029940
          39523.0000            0.034790
          39553.1992            0.040240
          39583.3984            0.046900
          39613.6016            0.054810
          39643.8984            0.063810
          39674.1992            0.074360
          39704.6016            0.086690
          39735.0000            0.101000
          39765.5000            0.117500
          39796.0000            0.135800
          39826.6016            0.157300
          39857.1992            0.179300
          39887.8984            0.202300
          39918.6016            0.228100
          39949.3008            0.252200
          39980.1016            0.277500
          40011.0000            0.300400
          40041.8984            0.320700
          40072.8008            0.339000
          40103.8008            0.355000
          40134.8984            0.366900
          40165.8984            0.375500
          40197.1016            0.380500
          40228.3008            0.383700
          40259.5000            0.385400
          40290.8008            0.384600
          40322.1016            0.382400
          40353.5000            0.379800
          40384.8984            0.378100
          40416.3984            0.374300
          40447.8984            0.369500
          40479.5000            0.365700
          40511.1016            0.360700
          40542.8008            0.356800
          40574.5000            0.353100
          40606.3008            0.348800
          40638.1016            0.344300
          40670.0000            0.340200
          40701.8984            0.336700
          40733.8984            0.333700
          40765.8984            0.330800
          40798.0000            0.328300
          40830.1016            0.326800
          40862.3008            0.326200
          40894.5000            0.325400
          40926.8008            0.324900
          40959.1016            0.325100
          40991.5000            0.326000
          41023.8984            0.328300
          41056.3984            0.330300
          41088.8984            0.332400
          41121.5000            0.335100
          41154.1992            0.338600
          41186.8008            0.344800
          41219.6016            0.350700
          41252.3984            0.355200
          41285.1992            0.361700
          41318.1016            0.368900
          41351.1016            0.376400
          41384.1016            0.383800
          41417.1016            0.391600
          41450.1992            0.399500
          41483.3984            0.408500
          41516.6016            0.418100
          41549.8984            0.426900
          41583.1992            0.434900
          41616.6016            0.441100
          41650.0000            0.447300
          41683.5000            0.454500
          41717.0000            0.460500
          41750.6016            0.466000
          41784.1992            0.470900
          41817.8984            0.475500
          41851.6992            0.479800
          41885.5000            0.484100
          41919.3008            0.488500
          41953.3008            0.490800
          41987.1992            0.492200
          42021.3008            0.494800
          42055.3008            0.496700
          42089.5000            0.497200
          42123.6992            0.497400
          42157.8984            0.497000
          42192.1992            0.497200
          42226.6016            0.496300
          42261.0000            0.494200
          42295.5000            0.492300
          42330.0000            0.490400
          42364.6016            0.488300
          42399.1992            0.487300
          42433.8984            0.484700
          42468.6992            0.480500
          42503.5000            0.477300
          42538.3008            0.474900
          42573.3008            0.472800
          42608.1992            0.470400
          42643.3008            0.468000
          42678.3984            0.467400
          42713.5000            0.466400
          42748.6992            0.464600
          42784.0000            0.465100
          42819.3008            0.465900
          42854.6992            0.465700
          42890.1992            0.466200
          42925.6992            0.467700
          42961.3008            0.471400
          42996.8984            0.474400
          43032.6016            0.477300
          43068.3008            0.480700
          43104.1016            0.483200
          43140.0000            0.486400
          43175.8984            0.490200
          43211.8984            0.492900
          43247.8984            0.495400
          43284.0000            0.498300
          43320.1992            0.501400
          43356.3984            0.504600
          43392.6992            0.506900
          43429.0000            0.509000
          43465.3984            0.510800
          43501.8984            0.512800
          43538.3984            0.514800
          43575.0000            0.515600
          43611.6016            0.516200
          43648.3008            0.519400
          43685.1016            0.522800
          43721.8984            0.523700
          43758.8008            0.525200
          43795.8008            0.527900
          43832.8008            0.529900
          43869.8984            0.531300
          43907.1016            0.533600
          43944.3008            0.536800
          43981.5000            0.539100
          44018.8984            0.540700
          44056.3008            0.542300
          44093.6992            0.543800
          44131.3008            0.545900
          44168.8984            0.547300
          44206.5000            0.547000
          44244.1992            0.547100
          44282.0000            0.547900
          44319.8984            0.548000
          44357.8008            0.548100
          44395.6992            0.548100
          44433.8008            0.546400
          44471.8984            0.546200
          44510.1016            0.546700
          44548.3008            0.544300
          44586.6016            0.541900
          44625.0000            0.541700
          44663.3984            0.541800
          44701.8984            0.540000
          44740.5000            0.537500
          44779.1016            0.536500
          44817.8008            0.535100
          44856.6016            0.532300
          44895.3984            0.531000
          44934.3008            0.529700
          44973.3008            0.526600
          45012.3984            0.523500
          45051.5000            0.521800
          45090.6016            0.519100
          45129.8984            0.516500
          45169.1992            0.515500
          45208.6016            0.513500
          45248.0000            0.511000
          45287.5000            0.509900
          45327.1016            0.508200
          45366.8008            0.506700
          45406.5000            0.506900
          45446.3008            0.506900
          45486.1992            0.505200
          45526.1016            0.504000
          45566.1016            0.503700
          45606.1992            0.503200
          45646.3008            0.503400
          45686.5000            0.503200
          45726.8008            0.501800
          45767.1992            0.500600
          45807.6016            0.499800
          45848.1016            0.498100
          45888.6992            0.495500
          45929.3008            0.493900
          45970.1016            0.493000
          46010.8984            0.491100
          46051.6992            0.488900
          46092.6992            0.486000
          46133.6992            0.483600
          46174.6992            0.481200
          46215.8984            0.477700
          46257.1016            0.475200
          46298.3984            0.472500
          46339.8008            0.469700
          46381.1992            0.470500
          46422.8008            0.471700
          46464.3984            0.472600
          46506.0000            0.474400
          46547.8008            0.475100
          46589.6016            0.476500
          46631.5000            0.479700
          46673.5000            0.482600
          46715.5000            0.484500
          46757.6016            0.486300
          46799.8008            0.488900
          46842.1016            0.491000
          46884.5000            0.492300
          46926.8984            0.494100
          46969.3984            0.495500
          47012.0000            0.497000
          47054.6992            0.498300
          47097.3984            0.498500
          47140.1992            0.497900
          47183.1016            0.496600
          47226.1016            0.494600
          47269.1016            0.493800
          47312.3008            0.492300
          47355.5000            0.489100
          47398.6992            0.485300
          47442.1016            0.483300
          47485.6016            0.480500
          47529.1016            0.476700
          47572.6992            0.473800
          47616.3984            0.470700
          47660.1016            0.467100
          47704.0000            0.464800
          47747.8984            0.462200
          47791.8984            0.458200
          47836.0000            0.454300
          47880.1992            0.451300
          47924.3984            0.449600
          47968.8008            0.448500
          48013.1992            0.446700
          48057.6992            0.445200
          48102.3008            0.443600
          48146.8984            0.442100
          48191.6992            0.442100
          48236.5000            0.442100
          48281.3984            0.440500
          48326.3984            0.439900
          48371.5000            0.441000
          48416.6016            0.441100
          48461.8984            0.440500
          48507.1992            0.440900
          48552.6992            0.441000
          48598.1992            0.440600
          48643.6992            0.441100
          48689.3984            0.441000
          48735.1992            0.441100
          48781.0000            0.441400
          48827.0000            0.441800
          48873.0000            0.443500
          48919.1016            0.444100
          48965.3008            0.444600
          49011.6016            0.445400
          49057.8984            0.446100
          49104.3984            0.446000
          49150.8984            0.443800
          49197.6016            0.441900
          49244.3008            0.439100
          49291.1016            0.434400
          49338.0000            0.427100
          49385.0000            0.418700
          49432.1016            0.410800
          49479.1992            0.402300
          49526.5000            0.393600
          49573.8008            0.386100
          49621.3008            0.380000
          49668.8008            0.376400
          49716.3984            0.374300
          49764.1016            0.372600
          49811.8984            0.371600
          49859.8008            0.372800
          49907.8008            0.368600
          49955.8984            0.356200
          50004.1016            0.330300
          50052.3008            0.293200
          50100.6992            0.247800
          50149.1992            0.192700
          50197.6992            0.139000
          50246.3008            0.096840
          50295.1016            0.065350
          50343.8984            0.042360
          50392.8008            0.027350
          50441.8984            0.017490
          50491.0000            0.010810
          50540.1992            0.006694
          50589.5000            0.003758
          50638.8984            0.001993
          50688.3984            0.000901
          50738.0000            0.000591
          50787.6992            0.000486
          50837.5000            0.000303
          50887.3984            0.000300
          50937.3984            0.000369
          50987.3984            0.000303
          51037.6016            0.000205
          51087.8984            0.000180
          51138.3008            0.000096
          51188.8008            0.000108
          51239.3984            0.000118
          51290.0000            0.000190
          51340.8008            0.000274
          51391.6992            0.000265
          51442.6992            0.000305
          51493.8008            0.000315
          51545.0000            0.000283
          51596.3008            0.000371
          51647.6016            0.000458
          51699.1016            0.000466
          51750.6992            0.000460
          51802.3984            0.000500
          51854.1992            0.000489
          51906.1016            0.000411
          51958.1016            0.000421
          52010.3008            0.000477
          52062.5000            0.000431
          52114.8008            0.000384
          52167.1992            0.000402
          52219.8008            0.000386
